File: 2/raman_con.txt
;
; High resolution cross section file : C:/Users/admin/Desktop/1018/raman.txt
; Calibration file : C:/Users/admin/Desktop/1018/SN1804011U1/Hg_U0008499_calibrated_solar.clb
; Shift applied : 0 nm
; Convolution type : Standard convolution
; Slit function type : Gaussian (FTS)
; Gaussian FWHM : 0.536
;
; Columns description :
; Column 1 : calibration;
; Column 2 : convoluted cross section;
;
297.492 7.98485e+13
297.936 8.09651e+13
298.38 8.66835e+13
298.824 7.88029e+13
299.267 7.65652e+13
299.71 7.73117e+13
300.153 7.70129e+13
300.595 7.31752e+13
301.037 7.23994e+13
301.478 7.31535e+13
301.919 8.02429e+13
302.36 8.18211e+13
302.8 8.59915e+13
303.24 9.32052e+13
303.679 9.88134e+13
304.118 9.87031e+13
304.557 9.54972e+13
304.995 9.34155e+13
305.433 9.2017e+13
305.871 9.30894e+13
306.308 8.856e+13
306.745 9.18055e+13
307.181 9.42396e+13
307.617 9.85928e+13
308.053 1.00033e+14
308.488 9.60067e+13
308.923 9.27411e+13
309.357 8.91062e+13
309.792 8.87046e+13
310.225 9.45643e+13
310.658 9.92977e+13
311.091 1.08448e+14
311.524 1.14038e+14
311.956 1.13983e+14
312.388 1.08345e+14
312.819 1.07106e+14
313.25 1.09954e+14
313.68 1.07927e+14
314.11 1.08225e+14
314.54 1.11125e+14
314.969 1.01843e+14
315.398 9.85328e+13
315.827 1.03457e+14
316.255 1.03409e+14
316.683 1.05372e+14
317.11 1.09031e+14
317.537 1.12926e+14
317.963 1.18694e+14
318.389 1.14198e+14
318.815 1.08136e+14
319.24 1.16211e+14
319.665 1.222e+14
320.09 1.23286e+14
320.514 1.24253e+14
320.937 1.2888e+14
321.36 1.28569e+14
321.783 1.18564e+14
322.206 1.1553e+14
322.628 1.19005e+14
323.049 1.18179e+14
323.47 1.17688e+14
323.891 1.20456e+14
324.311 1.25446e+14
324.731 1.35643e+14
325.151 1.44964e+14
325.57 1.48811e+14
325.989 1.55413e+14
326.407 1.63959e+14
326.825 1.65756e+14
327.242 1.64437e+14
327.659 1.62232e+14
328.076 1.61805e+14
328.492 1.65069e+14
328.908 1.67697e+14
329.323 1.68869e+14
329.738 1.72181e+14
330.152 1.75398e+14
330.567 1.77032e+14
330.98 1.70963e+14
331.393 1.66285e+14
331.806 1.64178e+14
332.218 1.64509e+14
332.63 1.62559e+14
333.042 1.60595e+14
333.453 1.62172e+14
333.864 1.63139e+14
334.274 1.61501e+14
334.684 1.6355e+14
335.093 1.62655e+14
335.502 1.56662e+14
335.91 1.58061e+14
336.319 1.5122e+14
336.726 1.45166e+14
337.133 1.47812e+14
337.54 1.46549e+14
337.946 1.52191e+14
338.352 1.57481e+14
338.758 1.60358e+14
339.163 1.68264e+14
339.567 1.70607e+14
339.972 1.67557e+14
340.375 1.70577e+14
340.779 1.73428e+14
341.181 1.72817e+14
341.584 1.70693e+14
341.986 1.67999e+14
342.387 1.71279e+14
342.788 1.70494e+14
343.189 1.65023e+14
343.589 1.61473e+14
343.989 1.63456e+14
344.388 1.61171e+14
344.787 1.5227e+14
345.185 1.50943e+14
345.583 1.59323e+14
345.981 1.68231e+14
346.378 1.67143e+14
346.774 1.62345e+14
347.171 1.64221e+14
347.566 1.68724e+14
347.962 1.64702e+14
348.356 1.61009e+14
348.751 1.62791e+14
349.145 1.69436e+14
349.538 1.73524e+14
349.931 1.72382e+14
350.324 1.72785e+14
350.716 1.79607e+14
351.107 1.85042e+14
351.499 1.80911e+14
351.889 1.74223e+14
352.28 1.78256e+14
352.669 1.81314e+14
353.059 1.795e+14
353.448 1.82853e+14
353.836 1.90027e+14
354.224 1.96042e+14
354.611 1.97841e+14
354.998 1.97795e+14
355.385 1.96224e+14
355.771 1.88512e+14
356.157 1.78606e+14
356.542 1.74828e+14
356.927 1.69355e+14
357.311 1.55476e+14
357.695 1.46573e+14
358.078 1.51998e+14
358.461 1.596e+14
358.843 1.61038e+14
359.225 1.60575e+14
359.607 1.64896e+14
359.988 1.73407e+14
360.368 1.83242e+14
360.748 1.86066e+14
361.128 1.79872e+14
361.507 1.75396e+14
361.885 1.78296e+14
362.264 1.76367e+14
362.641 1.74369e+14
363.018 1.83974e+14
363.395 1.91816e+14
363.771 1.88783e+14
364.147 1.89729e+14
364.522 2.00857e+14
364.897 2.09715e+14
365.272 2.11288e+14
365.645 2.14382e+14
366.019 2.22649e+14
366.392 2.32035e+14
366.764 2.35638e+14
367.136 2.31864e+14
367.507 2.27802e+14
367.878 2.28134e+14
368.249 2.28454e+14
368.619 2.28556e+14
368.988 2.26305e+14
369.357 2.23726e+14
369.726 2.23421e+14
370.094 2.27354e+14
370.461 2.35772e+14
370.829 2.3398e+14
371.195 2.19359e+14
371.561 2.12387e+14
371.927 2.18484e+14
372.292 2.15194e+14
372.656 2.00748e+14
373.021 1.94467e+14
373.384 1.96937e+14
373.747 1.9132e+14
374.11 1.8219e+14
374.472 1.86988e+14
374.834 1.94809e+14
375.195 1.92077e+14
375.556 1.9196e+14
375.916 2.03986e+14
376.275 2.17185e+14
376.635 2.27157e+14
376.993 2.33112e+14
377.351 2.35642e+14
377.709 2.37069e+14
378.066 2.37873e+14
378.423 2.40678e+14
378.779 2.44861e+14
379.135 2.44951e+14
379.49 2.42262e+14
379.844 2.36045e+14
380.199 2.24741e+14
380.552 2.15601e+14
380.905 2.11438e+14
381.258 2.10349e+14
381.61 2.07041e+14
381.962 1.96967e+14
382.313 1.84343e+14
382.663 1.73895e+14
383.013 1.67061e+14
383.363 1.65476e+14
383.712 1.67273e+14
384.061 1.67851e+14
384.409 1.67248e+14
384.756 1.72107e+14
385.103 1.82753e+14
385.45 1.9463e+14
385.796 2.02299e+14
386.141 2.00375e+14
386.486 1.94905e+14
386.83 1.95189e+14
387.174 1.97368e+14
387.518 1.96845e+14
387.861 1.98524e+14
388.203 2.03276e+14
388.545 2.08722e+14
388.886 2.11927e+14
389.227 2.12625e+14
389.567 2.16595e+14
389.907 2.26108e+14
390.246 2.37643e+14
390.585 2.43697e+14
390.923 2.40538e+14
391.26 2.33311e+14
391.598 2.26358e+14
391.934 2.18656e+14
392.27 2.08576e+14
392.606 2.00594e+14
392.941 1.98591e+14
393.275 1.96934e+14
393.609 1.89686e+14
393.943 1.81071e+14
394.275 1.79408e+14
394.608 1.84506e+14
394.94 1.91714e+14
395.271 1.97879e+14
395.602 2.0226e+14
395.932 2.08232e+14
396.262 2.18708e+14
396.591 2.29794e+14
396.919 2.33844e+14
397.247 2.28575e+14
397.575 2.23043e+14
397.902 2.28055e+14
398.228 2.46368e+14
398.554 2.70934e+14
398.88 2.93339e+14
399.204 3.1121e+14
399.529 3.25041e+14
399.853 3.34557e+14
400.176 3.41505e+14
400.498 3.47864e+14
400.821 3.51209e+14
401.142 3.51838e+14
401.463 3.52698e+14
401.784 3.53918e+14
402.104 3.54689e+14
402.423 3.555e+14
402.742 3.57336e+14
403.06 3.5952e+14
403.378 3.57518e+14
403.695 3.51109e+14
404.012 3.4746e+14
404.328 3.49148e+14
404.643 3.49478e+14
404.958 3.44722e+14
405.273 3.40563e+14
405.587 3.39914e+14
405.9 3.40884e+14
406.213 3.42086e+14
406.525 3.41755e+14
406.837 3.40279e+14
407.148 3.41096e+14
407.458 3.44489e+14
407.768 3.47578e+14
408.078 3.47876e+14
408.387 3.46199e+14
408.695 3.43808e+14
408.827 3.43089e+14